File: bamboo-r-9mm.csv
Time sec,Extension mm,Load kgf,Compressive stress MPa,Cycle Count ,Total Cycle Count ,Repetitions Count ,Marked Data ,PIP Count ,Compressive extension mm,Compressive strain %,Compressive load kgf,Displacement (Strain 1) mm,True strain %,Corrected Position mm,True stress Pa
0,0,-0.02458734,0.0001434601,0,0,0,0,0,0,0,0.02458734,0,0,0,143.4601
4.4,-0.07336172,-1.751286,0.01021825,0,0,0,0,0,0.07336172,0.3908456,1.751286,0,0.3916114,-0.07336172,10178.32
8.8,-0.1467234,-8.09968,0.04725931,0,0,0,0,0,0.1467234,0.7816912,8.09968,0,0.7847624,-0.1467234,46889.89
13.2,-0.2200254,-25.62266,0.1495009,0,0,0,0,0,0.2200254,1.172218,25.62266,0,1.179143,-0.2200254,147748.4
17.6,-0.2933273,-86.83416,0.5066524,0,0,0,0,0,0.2933273,1.562745,86.83416,0,1.575085,-0.2933273,498734.8
22,-0.366689,-288.1405,1.681217,0,0,0,0,0,0.366689,1.953591,288.1405,0,1.972926,-0.366689,1648373
26.4,-0.4399311,-568.9012,3.319376,0,0,0,0,0,0.4399311,2.343799,568.9012,0,2.371703,-0.4399311,3241576
30.8,-0.5131733,-851.0984,4.965916,0,0,0,0,0,0.5131733,2.734008,851.0984,0,2.772077,-0.5131733,4830147
35.2,-0.5865948,-1173.431,6.846632,0,0,0,0,0,0.5865948,3.125172,1173.431,0,3.175047,-0.5865948,6632663
39.6,-0.659837,-1535.466,8.959003,0,0,0,0,0,0.6598369,3.515381,1535.466,0,3.578658,-0.659837,8644061
44,-0.7331986,-1942.685,11.33501,0,0,0,0,0,0.7331986,3.906226,1942.684,0,3.984566,-0.7331986,10900000
48.4,-0.8065603,-2371.958,13.83969,0,0,0,0,0,0.8065603,4.297071,2371.958,0,4.392129,-0.8065603,13200000
52.8,-0.8798025,-2799.251,16.33283,0,0,0,0,0,0.8798025,4.68728,2799.251,0,4.800691,-0.8798025,15600000
57.2,-0.953224,-3179.04,18.54879,0,0,0,0,0,0.953224,5.078444,3179.04,0,5.211937,-0.953224,17600000
61.6,-1.026645,-3491.428,20.37148,0,0,0,0,0,1.026645,5.469608,3491.428,0,5.62488,-1.026645,19300000
66,-1.099828,-3731.426,21.7718,0,0,0,0,0,1.099828,5.859499,3731.426,0,6.038183,-1.099828,20500000
70.4,-1.173309,-3911.114,22.82023,0,0,0,0,0,1.173309,6.250981,3911.115,0,6.454899,-1.173309,21400000
74.8,-1.246611,-4041.869,23.58315,0,0,0,0,0,1.246611,6.641508,4041.869,0,6.872335,-1.246611,22000000
79.20001,-1.319853,-4150.089,24.21458,0,0,0,0,0,1.319853,7.031716,4150.089,0,7.291179,-1.319853,22500000
83.60001,-1.393275,-4245.44,24.77092,0,0,0,0,0,1.393275,7.422881,4245.439,0,7.712817,-1.393275,22900000
88.00001,-1.466517,-4331.89,25.27534,0,0,0,0,0,1.466517,7.813089,4331.89,0,8.135203,-1.466517,23300000
92.4,-1.539879,-4413.947,25.75411,0,0,0,0,0,1.539879,8.203935,4413.946,0,8.560075,-1.539879,23600000
96.8,-1.61336,-4491.311,26.20551,0,0,0,0,0,1.61336,8.595418,4491.311,0,8.987458,-1.61336,24000000
101.2,-1.686662,-4555.551,26.58034,0,0,0,0,0,1.686662,8.985945,4555.551,0,9.415624,-1.686662,24200000
105.6,-1.760023,-4606.115,26.87536,0,0,0,0,0,1.760023,9.37679,4606.115,0,9.845982,-1.760023,24400000
110,-1.833326,-4644.977,27.10211,0,0,0,0,0,1.833326,9.767318,4644.977,0,10.27785,-1.833326,24500000
114.4,-1.906747,-4678.392,27.29708,0,0,0,0,0,1.906747,10.15848,4678.392,0,10.7123,-1.906747,24500000
118.8,-1.980049,-4705.664,27.4562,0,0,0,0,0,1.980049,10.54901,4705.664,0,11.14793,-1.980049,24600000
123.2,-2.053351,-4733.582,27.6191,0,0,0,0,0,2.053351,10.93954,4733.582,0,11.58547,-2.053351,24600000
127.6,-2.126712,-4759.376,27.76959,0,0,0,0,0,2.126712,11.33038,4759.375,0,12.02529,-2.126712,24600000
132,-2.200134,-4783.903,27.9127,0,0,0,0,0,2.200134,11.72155,4783.903,0,12.46741,-2.200134,24600000
136.4,-2.273257,-4806.779,28.04618,0,0,0,0,0,2.273257,12.11112,4806.779,0,12.90969,-2.273257,24600000
140.8,-2.346678,-4830.197,28.18282,0,0,0,0,0,2.346678,12.50228,4830.197,0,13.35574,-2.346678,24700000
145.2,-2.42004,-4854.64,28.32543,0,0,0,0,0,2.42004,12.89313,4854.64,0,13.80344,-2.42004,24700000
149.6,-2.493222,-4874.511,28.44138,0,0,0,0,0,2.493222,13.28302,4874.511,0,14.25204,-2.493222,24700000
154,-2.566703,-4901.348,28.59796,0,0,0,0,0,2.566704,13.6745,4901.348,0,14.70451,-2.566703,24700000
158.4,-2.640125,-4924.92,28.7355,0,0,0,0,0,2.640125,14.06566,4924.92,0,15.15867,-2.640125,24700000
162.8,-2.713248,-4942.578,28.83853,0,0,0,0,0,2.713248,14.45524,4942.578,0,15.61304,-2.713248,24700000
167.2,-2.786729,-4965.84,28.97425,0,0,0,0,0,2.786729,14.84672,4965.84,0,16.07172,-2.786729,24700000
171.6,-2.86015,-4985.985,29.09179,0,0,0,0,0,2.86015,15.23788,4985.985,0,16.53215,-2.86015,24700000
176,-2.933333,-5006.15,29.20945,0,0,0,0,0,2.933333,15.62777,5006.149,0,16.99319,-2.933333,24600000
180.4,-3.006694,-5029.974,29.34846,0,0,0,0,0,3.006694,16.01862,5029.974,0,17.4575,-3.006694,24600000
184.8,-3.080116,-5054.398,29.49096,0,0,0,0,0,3.080116,16.40978,5054.398,0,17.92437,-3.080116,24700000
189.2,-3.153358,-5074.544,29.60851,0,0,0,0,0,3.153358,16.79999,5074.543,0,18.39227,-3.153358,24600000
193.6,-3.22666,-5099.424,29.75368,0,0,0,0,0,3.22666,17.19052,5099.424,0,18.86276,-3.22666,24600000
198,-3.300081,-5122.548,29.8886,0,0,0,0,0,3.300081,17.58168,5122.548,0,19.33624,-3.300081,24600000
202.4,-3.373324,-5148.963,30.04272,0,0,0,0,0,3.373324,17.97189,5148.963,0,19.81082,-3.373324,24600000
206.8,-3.446566,-5178.358,30.21424,0,0,0,0,0,3.446566,18.3621,5178.358,0,20.28765,-3.446566,24700000
211.2,-3.519868,-5206.227,30.37684,0,0,0,0,0,3.519868,18.75262,5206.227,0,20.76717,-3.519868,24700000
215.6,-3.593289,-5235.213,30.54597,0,0,0,0,0,3.593289,19.14379,5235.213,0,21.24978,-3.593289,24700000
220,-3.666531,-5256.905,30.67253,0,0,0,0,0,3.666531,19.534,5256.905,0,21.73354,-3.666531,24700000
224.4,-3.739833,-5256.77,30.67175,0,0,0,0,0,3.739833,19.92452,5256.771,0,22.22005,-3.739833,24600000
228.8,-3.813434,-5248.369,30.62273,0,0,0,0,0,3.813434,20.31664,5248.369,0,22.71095,-3.813434,24400000
233.2,-3.886557,-5280.856,30.81228,0,0,0,0,0,3.886557,20.70621,5280.856,0,23.20104,-3.886557,24400000
237.6,-3.959859,-5320.531,31.04377,0,0,0,0,0,3.959859,21.09674,5320.531,0,23.69477,-3.959859,24500000
242,-4.0334,-5362.096,31.2863,0,0,0,0,0,4.0334,21.48854,5362.096,0,24.19256,-4.0334,24600000
246.4,-4.106582,-5396.729,31.48837,0,0,0,0,0,4.106582,21.87843,5396.729,0,24.6904,-4.106582,24600000
250.8,-4.179884,-5432.217,31.69543,0,0,0,0,0,4.179884,22.26896,5432.217,0,25.19155,-4.179884,24600000
255.2,-4.253186,-5455.98,31.83408,0,0,0,0,0,4.253186,22.65949,5455.98,0,25.69523,-4.253186,24600000
259.6,-4.326548,-5495.219,32.06303,0,0,0,0,0,4.326548,23.05033,5495.219,0,26.20187,-4.326548,24700000
264,-4.39985,-5533.884,32.28863,0,0,0,0,0,4.399849,23.44086,5533.884,0,26.71067,-4.39985,24700000
268.4,-4.473092,-5566.425,32.4785,0,0,0,0,0,4.473092,23.83107,5566.425,0,27.22165,-4.473092,24700000
272.8,-4.546513,-5581.929,32.56896,0,0,0,0,0,4.546513,24.22223,5581.929,0,27.73652,-4.546513,24700000
277.2,-4.619935,-5593.642,32.6373,0,0,0,0,0,4.619935,24.6134,5593.643,0,28.25406,-4.619935,24600000
281.6,-4.693177,-5606.138,32.71021,0,0,0,0,0,4.693177,25.00361,5606.138,0,28.77302,-4.693177,24500000
286,-4.766598,-5629.059,32.84394,0,0,0,0,0,4.766598,25.39477,5629.059,0,29.29596,-4.766598,24500000
290.4,-4.83996,-5606.865,32.71445,0,0,0,0,0,4.83996,25.78562,5606.865,0,29.82122,-4.83996,24300000
294.8,-4.913262,-5566.949,32.48156,0,0,0,0,0,4.913262,26.17614,5566.949,0,30.34882,-4.913262,24000000
299.2,-4.986624,-5598.262,32.66426,0,0,0,0,0,4.986624,26.56699,5598.262,0,30.87966,-4.986624,24000000
303.6,-5.059986,-5645.33,32.93888,0,0,0,0,0,5.059986,26.95783,5645.33,0,31.41333,-5.059986,24100000
308,-5.133347,-5687.918,33.18737,0,0,0,0,0,5.133347,27.34868,5687.918,0,31.94986,-5.133347,24100000
312.4,-5.206649,-5730.043,33.43316,0,0,0,0,0,5.206649,27.73921,5730.042,0,32.48885,-5.206649,24200000
316.8,-5.280011,-5768.926,33.66003,0,0,0,0,0,5.280011,28.13005,5768.926,0,33.0312,-5.280011,24200000
321.2,-5.353432,-5809.782,33.89841,0,0,0,0,0,5.353433,28.52122,5809.782,0,33.57695,-5.353432,24200000
325.6,-5.426795,-5849.969,34.1329,0,0,0,0,0,5.426795,28.91207,5849.969,0,34.12525,-5.426795,24300000
330,-5.500036,-5893.167,34.38494,0,0,0,0,0,5.500036,29.30227,5893.167,0,34.67567,-5.500036,24300000
334.4,-5.573457,-5938.578,34.6499,0,0,0,0,0,5.573457,29.69343,5938.578,0,35.2305,-5.573457,24400000
338.8,-5.6467,-5980.53,34.89468,0,0,0,0,0,5.6467,30.08364,5980.53,0,35.78706,-5.6467,24400000
343.2,-5.720002,-6018.8,35.11797,0,0,0,0,0,5.720002,30.47417,6018.8,0,36.34718,-5.720002,24400000
347.6,-5.793483,-6068.022,35.40517,0,0,0,0,0,5.793483,30.86565,6068.022,0,36.91185,-5.793483,24500000
352,-5.866665,-6116.298,35.68685,0,0,0,0,0,5.866665,31.25554,6116.298,0,37.47741,-5.866665,24500000
356.4,-5.940027,-6164.795,35.96981,0,0,0,0,0,5.940027,31.64639,6164.795,0,38.04758,-5.940027,24600000
360.8,-6.013449,-6216.766,36.27305,0,0,0,0,0,6.013449,32.03755,6216.766,0,38.62149,-6.013449,24700000
365.2,-6.086691,-6265.162,36.55542,0,0,0,0,0,6.086691,32.42776,6265.162,0,39.19729,-6.086691,24700000
369.6,-6.159993,-6317.528,36.86097,0,0,0,0,0,6.159992,32.81829,6317.528,0,39.77691,-6.159993,24800000
374,-6.233354,-6370.339,37.16911,0,0,0,0,0,6.233354,33.20913,6370.339,0,40.36038,-6.233354,24800000
378.4,-6.306596,-6419.842,37.45794,0,0,0,0,0,6.306596,33.59934,6419.842,0,40.94632,-6.306596,24900000
382.8,-6.379898,-6471.722,37.76064,0,0,0,0,0,6.379899,33.98987,6471.722,0,41.5362,-6.379898,24900000
387.2,-6.45326,-6521.97,38.05383,0,0,0,0,0,6.45326,34.38071,6521.97,0,42.13005,-6.45326,25000000
391.6,-6.526622,-6569.895,38.33345,0,0,0,0,0,6.526622,34.77156,6569.895,0,42.72746,-6.526622,25000000
396,-6.599924,-6619.779,38.62452,0,0,0,0,0,6.599923,35.16209,6619.779,0,43.32796,-6.599924,25000000
400.4,-6.673225,-6673.512,38.93803,0,0,0,0,0,6.673225,35.55261,6673.512,0,43.9321,-6.673225,25100000
404.8,-6.746528,-6720.992,39.21507,0,0,0,0,0,6.746528,35.94314,6720.992,0,44.53991,-6.746528,25100000
409.2,-6.81983,-6721.896,39.22034,0,0,0,0,0,6.819829,36.33367,6721.896,0,45.15143,-6.81983,25000000
[...]7492437.159966759.784046.45777-6.9749242.48E+07418.6-6.976478-6759.12439.43755000006.97647837.168246759.124046.47095-6.9764782.48E+07418.7-6.978093-6759.92839.44224000006.97809337.176846759.928046.48464-6.9780932.48E+07418.8-6.980005-6761.76439.45295000006.98000537.187036761.764046.50086-6.9800052.48E+07418.9-6.981739-6763.70739.46429000006.9817437.196276763.707046.51557-6.9817392.48E+07419-6.983473-6764.57339.46935000006.98347337.205516764.573046.53028-6.9834732.48E+07419.1-6.985028-6765.17639.47287000006.98502837.213796765.176046.54347-6.9850282.48E+07419.2-6.986403-6763.24439.46159000006.98640337.221126763.244046.55514-6.9864032.48E+07419.3-6.988017-6763.3439.46215000006.98801737.229716763.34046.56884-6.9880172.48E+07419.4-6.98993-6766.04639.47794000006.98993137.239916766.046046.58508-6.989932.48E+07419.5-6.991844-6769.92439.50057000006.99184437.25016769.924046.60132-6.9918442.48E+07419.6-6.993398-6770.13939.50182000006.99339837.258386770.139046.61452-6.9933982.48E+07419.7-6.994893-6769.29539.4969000006.99489337.266356769.295046.62721-6.9948932.48E+07419.8-6.996508-6769.67939.49913000006.99650837.274956769.679046.64093-6.9965082.48E+07419.9-6.998182-6770.8239.50579000006.99818237.283876770.82046.65515-6.9981822.48E+07420-6.999975-6772.09739.51324000006.99997537.293426772.097046.67038-6.9999752.48E+07420.1-7.001829-6775.83739.53507000007.00182937.30336775.837046.68613-7.0018292.48E+07420.2-7.003503-6776.84839.54097000007.00350337.312216776.848046.70036-7.0035032.48E+07420.3-7.005177-6777.35739.54394000007.00517737.321136777.357046.71459-7.0051772.48E+07420.4-7.006672-6777.15339.54274000007.00667137.32916777.153046.72729-7.0066722.48E+07420.5-7.008166-6775.66239.53405000007.00816637.337066775.662046.73999-7.0081662.48E+07420.6-7.009781-6776.11539.53669000007.00978137.345666776.115046.75373-7.0097812.48E+07420.7-7.011634-6779.63839.55725000007.01163437.355546779.638046.76949-7.0116342.48E+07420.8-7.013368-6781.68339.56918000007.01336837.364786781.683046.78424-7.0133682.48E+07420.9-7.015042-6782.61839.57463000007.01504237.37376782.618046.79848-7.0150422.48E+07421-7.016657-6783.37239.57903000007.01665737.38236783.372046.81221-7.0166572.48E+07421.1-7.018091-6782.04339.57128000007.01809137.389946782.043046.82442-7.0180912.48E+07421.2-7.019885-6783.47839.57965000007.01988537.399496783.478046.83968-7.0198852.48E+07421.3-7.021679-6786.10739.59499000007.02167937.409056786.107046.85495-7.0216792.48E+07421.4-7.023413-6788.10739.60666000007.02341337.418296788.107046.86971-7.0234132.48E+07421.5-7.025207-6789.84739.61681000007.02520737.427856789.847046.88498-7.0252072.48E+07421.6-7.026761-6790.41739.62014000007.02676137.436136790.417046.89822-7.0267612.48E+07421.7-7.028256-6789.11339.61253000007.02825637.444096789.113046.91095-7.0282562.48E+07421.8-7.02993-6790.11439.61837000007.0299337.453016790.114046.92521-7.029932.48E+07421.9-7.031664-6790.72639.62194000007.03166337.462256790.726046.93997-7.0316642.48E+07422-7.033338-6792.65639.63321000007.03333837.471166792.656046.95424-7.0333382.48E+07422.1-7.035012-6793.8639.64022000007.03501237.480086793.86046.9685-7.0350122.48E+07422.2-7.036626-6794.93639.6465000007.03662637.488696794.936046.98226-7.0366262.48E+07422.3-7.038181-6794.60539.64457000007.0381837.496976794.605046.99551-7.0381812.48E+07422.4-7.039914-6796.1939.65382000007.03991537.50626796.19047.01029-7.0399142.48E+07422.5-7.041409-6795.77139.65138000007.04140937.514176795.771047.02303-7.0414092.48E+07422.6-7.043323-6798.48539.66721000007.04332337.524366798.485047.03935-7.0433232.48E+07422.7-7.045176-6801.08339.68237000007.04517737.534246801.083047.05516-7.0451762.48E+07422.8-7.04691-6804.22839.70072000007.0469137.543476804.228047.06994-7.046912.48E+07422.9-7.048225-6802.59439.69119000007.04822537.550486802.594047.08116-7.0482252.48E+07423-7.04978-6801.56239.68517000007.0497837.558776801.562047.09443-7.049782.48E+07423.1-7.051514-6803.64839.69734000007.05151537.5686803.648047.10923-7.0515142.48E+07423.2-7.053367-6806.48339.71387000007.05336837.577886806.482047.12504-7.0533672.48E+07423.3-7.055101-6808.74439.72707000007.05510137.587126808.744047.13984-7.0551012.48E+07423.4-7.056716-6808.49739.72563000007.05671537.595716808.497047.15362-7.0567162.48E+07423.5-7.05821-6808.57439.72608000007.05821137.603686808.574047.16639-7.058212.48E+07423.6-7.059884-6808.59739.72622000007.05988537.61266808.597047.18068-7.0598842.48E+07423.7-7.061558-6811.49739.74314000007.06155937.621526811.498047.19498-7.0615582.48E+07423.8-7.063232-6812.23839.74746000007.06323337.630446812.238047.20928-7.0632322.48E+07423.9-7.065026-6814.9839.76346000007.06502637.639996814.98047.2246-7.0650262.48E+07424-7.06676-6816.90639.7747000007.0667637.649236816.906047.23941-7.066762.48E+07424.1-7.068315-6817.70739.77937000007.06831537.657516817.707047.2527-7.0683152.48E+07424.2-7.069869-6816.31539.77125000007.0698737.665796816.315047.26598-7.0698692.48E+07424.3-7.071603-6818.77439.78559000007.07160337.675036818.774047.28081-7.0716032.48E+07424.4-7.073217-6819.15639.78782000007.07321737.683636819.156047.2946-7.0732172.48E+07424.5-7.075011-6822.6439.80815000007.07501137.693196822.64047.30994-7.0750112.48E+07424.6-7.076805-6824.64139.81983000007.07680537.702746824.641047.32528-7.0768052.48E+07424.7-7.078359-6825.55239.82514000007.0783637.711036825.552047.33858-7.0783592.48E+07424.8-7.079914-6824.21939.81736000007.07991437.719316824.219047.35187-7.0799142.48E+07424.9-7.081648-6826.24939.82921000007.08164837.728546826.249047.3667-7.0816482.48E+07425-7.083322-6826.79839.83241000007.08332237.737466826.797047.38103-7.0833222.48E+07425.1-7.084936-6828.66739.84332000007.08493637.746066828.667047.39484-7.0849362.48E+07425.2-7.08655-6829.38639.84751000007.0865537.754676829.386047.40866-7.086552.48E+07425.3-7.088284-6831.96639.86256000007.08828437.76396831.966047.4235-7.0882842.48E+07425.4-7.089899-6832.55539.866000007.08989937.77256832.555047.43732-7.0898992.48E+07425.5-7.091693-6834.4539.87706000007.09169237.782066834.45047.45268-7.0916932.48E+07425.6-7.093307-6835.65539.88409000007.09330737.790666835.655047.46651-7.0933072.48E+07425.7-7.095041-6837.65939.89578000007.09504137.79996837.659047.48135-7.0950412.48E+07425.8-7.096535-6836.23339.88746000007.09653537.807866836.233047.49416-7.0965352.48E+07425.9-7.098329-6838.68539.90177000007.0983337.817426838.685047.50953-7.0983292.48E+07426-7.100063-6841.34439.91728000007.10006337.826656841.344047.52438-7.1000632.48E+07426.1-7.101737-6842.87139.92619000007.10173737.835586842.872047.53873-7.1017372.48E+07426.2-7.103112-6842.69239.92514000007.10311237.84296842.691047.55051-7.1031122.48E+07426.3-7.104786-6841.96339.92089000007.10478637.851826841.963047.56486-7.1047862.48E+07426.4-7.10664-6845.10339.93921000007.1066437.861696845.103047.58076-7.106642.48E+07426.5-7.108434-6846.83739.94933000007.10843437.871256846.837047.59613-7.1084342.48E+07426.6-7.110048-6848.50439.95906000007.11004837.879856848.504047.60998-7.1100482.48E+07426.7-7.111602-6848.27839.95774000007.11160237.888136848.278047.62331-7.1116022.48E+07426.8-7.113217-6850.3239.96965000007.11321637.896736850.32047.63716-7.1132172.48E+07426.9-7.115011-6851.65439.97744000007.11501137.906296851.654047.65255-7.1150112.48E+07427-7.116625-6854.33339.99307000007.11662537.914896854.333047.6664-7.1166252.48E+07427.1-7.118359-6854.55339.99435000007.11835937.924136854.553047.68128-7.1183592.48E+07427.2-7.120033-6855.94340.00246000007.12003337.933046855.943047.69565-7.1200332.48E+07427.3-7.121587-6854.63639.99484000007.12158737.941336854.636047.70899-7.1215872.48E+07427.4-7.123261-6856.91440.00813000007.12326137.950246856.914047.72336-7.1232612.48E+07427.5-7.124876-6857.23940.01003000007.12487637.958856857.239047.73723-7.1248762.48E+07427.6-7.126729-6861.08940.03249000007.12672937.968726861.089047.75314-7.1267292.48E+07427.7-7.128344-6861.77640.0365000007.12834337.977326861.776047.76701-7.1283442.48E+07427.8-7.130018-6863.79540.04828000007.13001737.986246863.795047.78139-7.1300182.48E+07427.9-7.131512-6863.6840.04761000007.13151237.994216863.68047.79423-7.1315122.48E+07428-7.133246-6863.77740.04817000007.13324638.003446863.777047.80913-7.1332462.48E+07428.1-7.13486-6864.76540.05394000007.13486138.012046864.765047.82301-7.134862.48E+07428.2-7.136774-6868.1640.07375000007.13677438.022246868.16047.83945-7.1367742.48E+07428.3-7.138448-6870.38640.08673000007.13844838.031156870.386047.85384-7.1384482.48E+07428.4-7.140003-6871.38440.09256000007.14000338.039446871.384047.86722-7.1400032.48E+07428.5-7.141557-6872.07940.09661000007.14155738.047726872.079047.88057-7.1415572.48E+07428.6-7.143231-6872.60640.09969000007.14323138.056646872.605047.89497-7.1432312.48E+07428.7-7.144845-6873.88240.,,