File: bamboo-r-18mm.csv
Time sec,Extension mm,Load kgf,Compressive stress MPa,Cycle Count ,Total Cycle Count ,Repetitions Count ,Marked Data ,PIP Count ,Compressive extension mm,Compressive strain %,Compressive load kgf,Displacement (Strain 1) mm,True strain %,Corrected Position mm,True stress Pa
0,-9.006092,-6606.691,38.54815,0,0,0,0,0,9.006091,47.98131,6606.691,0,65.3567,-9.006092,20100000
0.9600001,-9.021757,-6786.808,39.59908,0,0,0,0,0,9.021757,48.06477,6786.808,0,65.51728,-9.021757,20600000
1.96,-9.038798,-6976.915,40.7083,0,0,0,0,0,9.038797,48.15556,6976.915,0,65.69224,-9.038798,21100000
2.96,-9.055359,-7156.187,41.7543,0,0,0,0,0,9.055359,48.24379,7156.187,0,65.86257,-9.055359,21600000
3.96,-9.07204,-7321.727,42.72018,0,0,0,0,0,9.07204,48.33266,7321.727,0,66.03443,-9.07204,22100000
4.96,-9.088782,-7492.702,43.71777,0,0,0,0,0,9.088781,48.42185,7492.702,0,66.20721,-9.088782,22500000
5.96,-9.105284,-7654.129,44.65965,0,0,0,0,0,9.105284,48.50977,7654.129,0,66.37781,-9.105284,23000000
6.96,-9.122144,-7819.772,45.62613,0,0,0,0,0,9.122144,48.59959,7819.772,0,66.55241,-9.122144,23500000
7.96,-9.138586,-7977.607,46.54705,0,0,0,0,0,9.138586,48.68719,7977.607,0,66.72298,-9.138586,23900000
8.96,-9.155446,-8132.29,47.44958,0,0,0,0,0,9.155446,48.77702,8132.291,0,66.89819,-9.155446,24300000
9.96,-9.172008,-8278.964,48.30538,0,0,0,0,0,9.172009,48.86525,8278.964,0,67.0706,-9.172008,24700000
10.96,-9.18851,-8416.463,49.10766,0,0,0,0,0,9.18851,48.95317,8416.464,0,67.24267,-9.18851,25100000
11.96,-9.205551,-8559.68,49.94328,0,0,0,0,0,9.205551,49.04396,8559.68,0,67.42068,-9.205551,25400000
12.96,-9.221933,-8689.491,50.70069,0,0,0,0,0,9.221933,49.13124,8689.491,0,67.59212,-9.221933,25800000
13.96,-9.238973,-8820.14,51.46299,0,0,0,0,0,9.238974,49.22202,8820.14,0,67.77074,-9.238973,26100000
14.96,-9.255295,-8932.862,52.12069,0,0,0,0,0,9.255295,49.30898,8932.862,0,67.94214,-9.255295,26400000
15.96,-9.271976,-9046.224,52.78213,0,0,0,0,0,9.271976,49.39785,9046.225,0,68.11761,-9.271976,26700000
16.96,-9.288478,-9153.378,53.40734,0,0,0,0,0,9.288479,49.48577,9153.378,0,68.29151,-9.288478,27000000
17.96,-9.30522,-9254.674,53.99838,0,0,0,0,0,9.30522,49.57496,9254.675,0,68.46823,-9.30522,27200000
18.96,-9.32214,-9325.06,54.40906,0,0,0,0,0,9.322141,49.6651,9325.061,0,68.64716,-9.32214,27400000
19.96,-9.338761,-9341.061,54.50241,0,0,0,0,0,9.338761,49.75366,9341.061,0,68.82324,-9.338761,27400000
20.96,-9.355263,-9407.12,54.88785,0,0,0,0,0,9.355264,49.84157,9407.12,0,68.99837,-9.355263,27500000
21.96,-9.372184,-9470.844,55.25967,0,0,0,0,0,9.372184,49.93172,9470.845,0,69.17825,-9.372184,27700000
22.96,-9.388506,-9531.65,55.61445,0,0,0,0,0,9.388506,50.01868,9531.65,0,69.35209,-9.388506,27800000
23.96,-9.405307,-9592.346,55.96859,0,0,0,0,0,9.405307,50.10819,9592.346,0,69.53133,-9.405307,27900000
24.96,-9.422048,-9612.551,56.08649,0,0,0,0,0,9.422048,50.19738,9612.552,0,69.71025,-9.422048,27900000
25.96,-9.43873,-9655.354,56.33623,0,0,0,0,0,9.438729,50.28625,9655.354,0,69.88887,-9.43873,28000000
26.96,-9.45547,-9696.518,56.5764,0,0,0,0,0,9.455469,50.37544,9696.518,0,70.06843,-9.45547,28100000
27.96,-9.472032,-9726.568,56.75174,0,0,0,0,0,9.472032,50.46368,9726.567,0,70.2464,-9.472032,28100000
28.96,-9.488833,-9761.712,56.95679,0,0,0,0,0,9.488833,50.55318,9761.712,0,70.42726,-9.488833,28200000
29.96,-9.505574,-9791.218,57.12895,0,0,0,0,0,9.505574,50.64238,9791.218,0,70.6078,-9.505574,28200000
30.96,-9.521956,-9813.218,57.25732,0,0,0,0,0,9.521955,50.72965,9813.218,0,70.78477,-9.521956,28200000
31.96,-9.538757,-9823.415,57.31681,0,0,0,0,0,9.538757,50.81916,9823.415,0,70.96662,-9.538757,28200000
32.96,-9.555319,-9844.678,57.44087,0,0,0,0,0,9.555319,50.9074,9844.678,0,71.14618,-9.555319,28200000
33.96,-9.572,-9865.728,57.56369,0,0,0,0,0,9.572001,50.99627,9865.728,0,71.32739,-9.572,28200000
34.96,-9.588682,-9878.033,57.63549,0,0,0,0,0,9.588681,51.08514,9878.033,0,71.5089,-9.588682,28200000
35.96,-9.605482,-9899.033,57.75803,0,0,0,0,0,9.605482,51.17465,9899.033,0,71.69205,-9.605482,28200000
36.96,-9.622343,-9915.042,57.85143,0,0,0,0,0,9.622343,51.26448,9915.042,0,71.8762,-9.622343,28200000
37.96,-9.638546,-9859.503,57.52737,0,0,0,0,0,9.638546,51.3508,9859.503,0,72.05349,-9.638546,28000000
38.96,-9.655646,-9862.61,57.54551,0,0,0,0,0,9.655645,51.44191,9862.61,0,72.24093,-9.655646,27900000
39.96,-9.671788,-9873.418,57.60857,0,0,0,0,0,9.671788,51.52791,9873.418,0,72.4182,-9.671788,27900000
40.96,-9.688709,-9890.606,57.70885,0,0,0,0,0,9.688709,51.61806,9890.606,0,72.60435,-9.688709,27900000
41.96,-9.70557,-9899.385,57.76007,0,0,0,0,0,9.70557,51.70789,9899.385,0,72.79019,-9.70557,27900000
42.96,-9.722072,-9870.29,57.59032,0,0,0,0,0,9.722072,51.7958,9870.29,0,72.9724,-9.722072,27800000
43.96,-9.738813,-9887.152,57.6887,0,0,0,0,0,9.738812,51.88499,9887.151,0,73.1576,-9.738813,27800000
44.96,-9.755255,-9907.887,57.80969,0,0,0,0,0,9.755256,51.97259,9907.888,0,73.33983,-9.755255,27800000
45.96,-9.771996,-9934.211,57.96328,0,0,0,0,0,9.771996,52.06178,9934.211,0,73.52571,-9.771996,27800000
46.96,-9.788797,-9964.854,58.14207,0,0,0,0,0,9.788797,52.15129,9964.854,0,73.71261,-9.788797,27800000
47.96,-9.805299,-9987.013,58.27136,0,0,0,0,0,9.8053,52.23921,9987.014,0,73.89651,-9.805299,27800000
48.96,-9.822339,-9997.158,58.33055,0,0,0,0,0,9.822339,52.32999,9997.158,0,74.08677,-9.822339,27800000
49.96,-9.838542,-10015.95,58.44021,0,0,0,0,0,9.838542,52.41631,10015.95,0,74.26802,-9.838542,27800000
50.96,-9.855463,-10047.13,58.62214,0,0,0,0,0,9.855463,52.50646,10047.13,0,74.45765,-9.855463,27800000
51.96,-9.872203,-10061.95,58.7086,0,0,0,0,0,9.872203,52.59565,10061.95,0,74.64562,-9.872203,27800000
52.96,-9.888706,-10015.68,58.43864,0,0,0,0,0,9.888706,52.68357,10015.68,0,74.83126,-9.888706,27700000
53.96,-9.905506,-10037.33,58.56495,0,0,0,0,0,9.905506,52.77308,10037.33,0,75.0206,-9.905506,27700000
54.96,-9.921949,-10054.29,58.66389,0,0,0,0,0,9.921948,52.86068,10054.29,0,75.20626,-9.921949,27700000
55.96,-9.938809,-10033.17,58.54066,0,0,0,0,0,9.938809,52.9505,10033.17,0,75.397,-9.938809,27500000
56.96,-9.955311,-10044.48,58.60668,0,0,0,0,0,9.955311,53.03842,10044.48,0,75.58403,-9.955311,27500000
57.96,-9.972051,-10076.4,58.7929,0,0,0,0,0,9.972052,53.12761,10076.4,0,75.77413,-9.972051,27600000
58.96,-9.988853,-10101.57,58.93974,0,0,0,0,0,9.988853,53.21711,10101.57,0,75.96528,-9.988853,27600000
59.96,-10.00541,-10092.33,58.88584,0,0,0,0,0,10.00541,53.30536,10092.33,0,76.15407,-10.00541,27500000
60.96,-10.02204,-10100.87,58.93565,0,0,0,0,0,10.02204,53.3939,10100.87,0,76.34388,-10.02204,27500000
61.96,-10.0389,-10128.48,59.09678,0,0,0,0,0,10.0389,53.48373,10128.48,0,76.5368,-10.0389,27500000
62.96,-10.05516,-10161.39,59.28878,0,0,0,0,0,10.05516,53.57037,10161.39,0,76.72324,-10.05516,27500000
63.96,-10.0722,-10200.23,59.51541,0,0,0,0,0,10.0722,53.66116,10200.23,0,76.91897,-10.0722,27600000
64.96001,-10.08864,-10165.46,59.31257,0,0,0,0,0,10.08864,53.74876,10165.46,0,77.10818,-10.08864,27400000
65.96001,-10.10538,-10196.49,59.49358,0,0,0,0,0,10.10538,53.83795,10196.49,0,77.30121,-10.10538,27500000
66.96001,-10.12212,-10229.31,59.68511,0,0,0,0,0,10.12212,53.92714,10229.31,0,77.49461,-10.12212,27500000
67.96001,-10.13857,-10215.08,59.60209,0,0,0,0,0,10.13857,54.01474,10215.08,0,77.68492,-10.13857,27400000
68.96001,-10.15537,-10241.36,59.75542,0,0,0,0,0,10.15537,54.10425,10241.36,0,77.87976,-10.15537,27400000
69.96001,-10.17193,-10281.53,59.98977,0,0,0,0,0,10.17193,54.19248,10281.53,0,78.07219,-10.17193,27500000
70.96001,-10.18873,-10269.15,59.91756,0,0,0,0,0,10.18873,54.28199,10269.15,0,78.26779,-10.18873,27400000
71.96001,-10.20559,-10304.01,60.12096,0,0,0,0,0,10.20559,54.37181,10304.01,0,78.46446,-10.20559,27400000
72.96001,-10.22191,-10339.96,60.3307,0,0,0,0,0,10.22191,54.45878,10339.96,0,78.65523,-10.22191,27500000
73.96001,-10.23883,-10328.61,60.26448,0,0,0,0,0,10.23883,54.54892,10328.61,0,78.85336,-10.23883,27400000
74.96001,-10.25527,-10361.61,60.45702,0,0,0,0,0,10.25527,54.63652,10361.61,0,79.04628,-10.25527,27400000
75.96001,-10.27231,-10402.2,60.69384,0,0,0,0,0,10.27231,54.7273,10402.2,0,79.2466,-10.27231,27500000
76.96001,-10.28888,-10393.13,60.64092,0,0,0,0,0,10.28888,54.81554,10393.13,0,79.4417,-10.28888,27400000
77.96001,-10.30532,-10432.45,60.87033,0,0,0,0,0,10.30532,54.90314,10432.45,0,79.63576,-10.30532,27500000
78.96001,-10.32218,-10470.99,61.09524,0,0,0,0,0,10.32218,54.99297,10470.99,0,79.83514,-10.32218,27500000
79.96001,-10.33856,-10462.73,61.04706,0,0,0,0,0,10.33856,55.08025,10462.73,0,80.02925,-10.33856,27400000
80.96001,-10.35542,-10499.73,61.26293,0,0,0,0,0,10.35542,55.17007,10499.73,0,80.22942,-10.35542,27500000
81.96001,-10.37216,-10535.38,61.47093,0,0,0,0,0,10.37216,55.25927,10535.38,0,80.42858,-10.37216,27500000
82.96001,-10.38878,-10580.45,61.73392,0,0,0,0,0,10.38878,55.34781,10580.45,0,80.62669,-10.38878,27600000
83.96001,-10.40535,-10569.1,61.66769,0,0,0,0,0,10.40535,55.43605,10569.1,0,80.8245,-10.40535,27500000
84.96001,-10.42215,-10600.88,61.85308,0,0,0,0,0,10.42215,55.52555,10600.88,0,81.02555,-10.42215,27500000
85.96001,-10.43871,-10644.98,62.11039,0,0,0,0,0,10.43871,55.61379,10644.98,0,81.22413,-10.43871,27600000
86.96001,-10.45533,-10634.68,62.0503,0,0,0,0,0,10.45533,55.70235,10634.68,0,81.42386,-10.45533,27500000
87.96001,-10.47201,-10667.54,62.24202,0,0,0,0,0,10.47201,55.79122,10667.54,0,81.62468,-10.47201,27500000
88.89201,-10.48768,-10707.1,62.47285,0,0,0,0,0,10.48768,55.87468,10707.1,0,81.81364,-10.48768,27600000